* Measurement data measured by REW V5.20 Beta 47
* Source:
* Format:
* Dated:
* REW Settings:
*  C-weighting compensation: Off
*  Target level: 
* Note: ; 
* Measurement: L
* Smoothing: None
* Frequency Step: 1/48 octave
* Start Frequency: 20.000 Hz
*
* Freq(Hz)	SPL(dB)
20.0000	11.0699
20.3000	11.1822
20.6000	11.2946
20.9000	11.4069
21.2000	11.5192
21.4000	11.5192
21.8000	11.7439
22.0000	11.7439
22.4000	11.9685
22.7000	11.9685
23.0000	12.0809
23.3000	12.1932
23.6000	12.3055
24.0000	12.4178
24.3000	12.5302
24.7000	12.6425
25.0000	12.6425
25.4000	12.811
25.8000	12.8672
26.2000	12.9795
26.5000	13.0918
26.9000	13.2041
27.2000	13.3165
27.6000	13.3165
28.0000	13.4288
28.5000	13.5411
29.0000	13.6535
29.5000	13.7658
30.0000	13.8781
30.4000	13.8781
30.7000	13.8781
31.1000	13.9904
31.5000	14.1028
32.0000	14.1028
32.5000	14.1028
33.0000	14.2151
33.5000	14.3274
34.0000	14.3274
34.5000	14.4398
35.0000	14.5521
35.5000	14.5521
36.0000	14.6644
36.5000	14.6644
37.0000	14.7767
37.5000	14.7767
38.2000	14.8891
38.7000	14.8891
39.5000	14.8891
40.0000	15.0014
40.6000	15.0014
41.2000	15.0014
41.8000	15.0014
42.5000	15.1137
43.1000	15.1137
43.7000	15.1137
44.4000	15.1137
45.0000	15.1137
45.5000	15.1137
46.2000	15.226
46.8000	15.226
47.5000	15.226
48.2000	15.226
48.7000	15.226
49.4000	15.226
50.0000	15.226
50.8000	15.226
51.5000	15.226
52.2000	15.226
53.0000	15.226
53.8000	15.226
54.5000	15.226
55.2000	15.1137
56.0000	15.1137
57.0000	15.1137
58.0000	15.1137
59.0000	15.1137
60.0000	15.1137
60.8000	15.1137
61.5000	15.0014
62.2000	15.0014
63.0000	15.0014
64.0000	15.0014
65.0000	15.0014
66.0000	14.8891
67.0000	14.8891
68.0000	14.8891
69.0000	14.8891
70.0000	14.8891
71.0000	14.8891
72.0000	14.8891
73.0000	14.7767
74.0000	14.7767
75.0000	14.7767
76.2000	14.7767
77.5000	14.6644
78.8000	14.6644
80.0000	14.6644
81.2000	14.5521
82.5000	14.5521
83.8000	14.5521
85.0000	14.4398
86.2000	14.4398
87.5000	14.3274
88.5000	14.2151
90.0000	14.2713
91.2000	14.3274
92.5000	14.3274
93.8000	14.2151
95.0000	14.2151
96.2000	14.1028
97.5000	14.1028
98.8000	14.2151
100.0000	14.2151
101.5000	14.3274
103.0000	14.3274
104.4000	14.3274
106.0000	14.3274
107.5000	14.3274
109.0000	14.3274
110.6000	14.3274
112.0000	14.3274
113.8000	14.2151
115.0000	14.2151
117.2000	14.1028
118.0000	14.1028
120.6000	13.9904
122.0000	13.8781
124.1000	13.7658
125.0000	13.7658
126.5000	13.6535
128.0000	13.5411
131.5000	13.2041
132.0000	13.148
134.0000	12.9795
136.0000	12.8672
138.0000	12.6425
140.0000	12.4178
143.0000	12.1932
145.0000	12.1932
147.5000	12.0809
150.0000	12.0809
152.5000	12.0809
155.0000	12.1932
157.5000	12.4178
160.0000	12.5302
162.5000	12.7548
165.0000	12.8672
167.5000	12.9795
170.0000	13.0918
172.5000	13.2041
175.0000	13.3165
177.5000	13.4288
180.0000	13.5411
182.5000	13.6535
185.0000	13.6535
187.5000	13.7658
190.0000	13.7658
192.5000	13.7658
195.0000	13.7658
197.5000	13.7658
200.0000	13.8781
203.0000	14.1028
206.0000	14.2151
209.0000	14.3274
212.0000	14.4398
214.0000	14.5521
218.0000	14.6644
220.0000	14.6644
224.0000	14.6644
227.0000	14.6644
230.0000	14.6644
233.0000	14.5521
236.0000	14.5521
240.0000	14.5521
243.0000	14.4398
247.0000	14.3274
250.0000	14.2151
254.0000	13.9904
258.0000	13.7096
262.0000	13.0356
265.0000	12.7548
269.0000	11.8562
272.0000	11.1261
276.0000	10.5644
280.0000	10.3959
285.0000	10.7891
290.0000	11.6877
295.0000	12.3617
300.0000	13.0356
304.0000	13.3165
307.0000	13.4288
311.0000	13.6535
315.0000	13.6535
320.0000	13.7658
325.0000	13.7658
330.0000	13.7658
335.0000	13.6535
340.0000	13.6535
345.0000	13.4288
350.0000	13.2041
355.0000	12.9233
360.0000	12.5863
365.0000	12.0247
370.0000	11.6315
375.0000	11.3507
382.0000	11.1822
387.0000	11.0699
395.0000	11.0699
400.0000	10.9014
406.0000	10.7329
412.0000	10.3959
418.0000	10.1713
425.0000	9.8343
431.0000	9.6096
437.0000	9.385
444.0000	9.1603
450.0000	8.9357
455.0000	8.9357
462.0000	8.0932
468.0000	7.7562
475.0000	7.4192
482.0000	7.0823
487.0000	6.7453
494.0000	6.4083
500.0000	6.1836
508.0000	5.7343
515.0000	5.285
522.0000	4.948
530.0000	4.7234
538.0000	4.3864
545.0000	3.9932
552.0000	3.7686
560.0000	3.5439
570.0000	3.2069
580.0000	2.9823
590.0000	2.8699
600.0000	2.7576
608.0000	2.7576
615.0000	2.6453
622.0000	2.6453
630.0000	2.6453
640.0000	2.6453
650.0000	2.6453
660.0000	2.533
670.0000	2.4206
680.0000	2.3083
690.0000	1.9713
700.0000	1.8028
710.0000	1.5782
720.0000	1.3535
730.0000	1.1289
740.0000	0.7919
750.0000	0.4549
762.0000	0.2302
775.0000	-0.1629
788.0000	-0.4437
800.0000	-0.8931
812.0000	-1.1177
825.0000	-1.5109
838.0000	-1.6794
850.0000	-1.8478
862.0000	-1.9602
875.0000	-2.1287
885.0000	-2.1848
900.0000	-2.241
912.0000	-2.2972
925.0000	-2.1848
938.0000	-2.1848
950.0000	-2.1848
962.0000	-2.2972
975.0000	-2.4095
988.0000	-2.5218
1000.0000	-2.578
1015.0000	-2.7465
1030.0000	-2.8588
1044.0000	-3.0835
1060.0000	-3.1958
1075.0000	-3.3081
1090.0000	-3.4204
1106.0000	-3.6451
1120.0000	-3.7574
1138.0000	-3.9821
1150.0000	-4.0944
1172.0000	-4.2067
1180.0000	-4.3191
1206.0000	-4.4314
1220.0000	-4.5437
1241.0000	-4.5437
1250.0000	-4.656
1265.0000	-4.656
1280.0000	-4.7684
1315.0000	-4.8807
1320.0000	-4.8807
1340.0000	-4.9369
1360.0000	-4.993
1380.0000	-4.993
1400.0000	-4.993
1430.0000	-4.8807
1450.0000	-4.7684
1475.0000	-4.5999
1500.0000	-4.4876
1525.0000	-4.3191
1550.0000	-4.0944
1575.0000	-3.9821
1600.0000	-3.7574
1625.0000	-3.6451
1650.0000	-3.5328
1675.0000	-3.3081
1700.0000	-3.0835
1725.0000	-2.8588
1750.0000	-2.6341
1775.0000	-2.4095
1800.0000	-2.1848
1825.0000	-2.0163
1850.0000	-1.8478
1875.0000	-1.6232
1900.0000	-1.3424
1925.0000	-1.1177
1950.0000	-0.8369
1975.0000	-0.5561
2000.0000	-0.2191
2030.0000	-0.0506
2060.0000	0.1741
2090.0000	0.3987
2120.0000	0.6234
2140.0000	0.7357
2180.0000	1.0165
2200.0000	1.185
2240.0000	1.2973
2270.0000	1.4097
2300.0000	1.6343
2330.0000	1.859
2360.0000	1.9713
2400.0000	2.196
2430.0000	2.3083
2470.0000	2.6453
2500.0000	2.7576
2540.0000	2.8699
2580.0000	2.9823
2620.0000	3.0946
2650.0000	3.2069
2690.0000	3.3193
2720.0000	3.4316
2760.0000	3.5439
2800.0000	3.6562
2850.0000	3.7686
2900.0000	3.8809
2950.0000	3.9371
3000.0000	3.9371
3040.0000	3.8809
3070.0000	3.7686
3110.0000	3.6562
3150.0000	3.4316
3200.0000	3.2631
3250.0000	2.8138
3300.0000	2.4768
3350.0000	1.9713
3400.0000	1.6905
3450.0000	1.3535
3500.0000	1.0727
3550.0000	0.7919
3600.0000	0.6234
3650.0000	0.511
3700.0000	0.2302
3750.0000	0.0056
3820.0000	-0.5561
3870.0000	-0.8369
3950.0000	-1.3424
4000.0000	-1.6232
4060.0000	-1.6232
4120.0000	-3.1958
4180.0000	-3.6451
4250.0000	-4.0944
4310.0000	-4.3191
4370.0000	-4.4314
4440.0000	-4.2629
4500.0000	-3.9259
4550.0000	-3.3643
4620.0000	-2.6903
4680.0000	-1.9602
4750.0000	-1.567
4820.0000	0.1741
4870.0000	0.3987
4940.0000	1.185
5000.0000	1.522
5080.0000	2.0836
5150.0000	2.3083
5220.0000	2.4206
5300.0000	2.4206
5380.0000	2.4206
5450.0000	2.533
5520.0000	2.7015
5600.0000	2.8699
5700.0000	2.9823
5800.0000	2.9823
5900.0000	2.9823
6000.0000	2.9823
6080.0000	3.0946
6150.0000	3.3193
6220.0000	3.5439
6300.0000	3.6562
6400.0000	4.4425
6500.0000	4.4425
6600.0000	4.4425
6700.0000	4.4425
6800.0000	4.4425
6900.0000	4.4425
7000.0000	7.9247
7100.0000	8.374
7200.0000	8.4864
7300.0000	8.2617
7400.0000	8.2617
7500.0000	8.2617
7620.0000	8.2617
7750.0000	8.2617
7880.0000	8.2617
8000.0000	8.2617
8120.0000	1.2973
8250.0000	0.9042
8380.0000	0.6234
8500.0000	0.3987
8620.0000	0.2864
8750.0000	0.2864
8850.0000	0.3987
9000.0000	0.7919
9120.0000	0.9604
9250.0000	1.0727
9380.0000	1.0727
9500.0000	1.0727
9620.0000	1.0727
9750.0000	0.7357
9880.0000	0.6234
10000.0000	0.6234
10150.0000	0.6234
10300.0000	0.6234
10440.0000	0.6234
10600.0000	-2.6341
10750.0000	-4.7122
10900.0000	-5.667
11060.0000	-6.004
11200.0000	-6.004
11380.0000	-6.004
11500.0000	-6.004
11720.0000	-6.004
11800.0000	-6.004
12060.0000	1.2412
12200.0000	1.2973
12410.0000	0.7357
12500.0000	0.2864
12650.0000	-0.9492
12800.0000	-2.4656
13150.0000	-5.8355
13200.0000	-6.341
13400.0000	-7.0149
13600.0000	-8.0259
13800.0000	-9.8231
14000.0000	-11.5081
14300.0000	-13.6423
14500.0000	-14.4848
14750.0000	-14.4286
15000.0000	-13.867
15250.0000	-13.3615
15500.0000	-13.3615
15750.0000	-13.7546
16000.0000	-14.8218
16250.0000	-15.1587
16500.0000	-15.6081
16750.0000	-14.8779
17000.0000	-13.4738
17250.0000	-11.1149
17500.0000	-9.7108
17750.0000	-8.9245
18000.0000	-8.6999
18250.0000	-9.767
18500.0000	-10.8903
18750.0000	-11.9012
19000.0000	-13.193
19250.0000	-14.5971
19500.0000	-16.5628
19750.0000	-18.5286
