* Measurement data measured by REW V5.20 Beta 47
* Source:
* Format:
* Dated:
* REW Settings:
*  C-weighting compensation: Off
*  Target level: 
* Note: ; 
* Measurement: L
* Smoothing: None
* Frequency Step: 1/48 octave
* Start Frequency: 20.000 Hz
*
* Freq(Hz)	SPL(dB)
20.0000	8.711
20.3000	8.7672
20.6000	8.9918
20.9000	9.1042
21.2000	9.2165
21.4000	9.2165
21.8000	9.3288
22.0000	9.3288
22.4000	9.5535
22.7000	9.6658
23.0000	9.7781
23.3000	9.7781
23.6000	9.8905
24.0000	10.0028
24.3000	10.0028
24.7000	10.1151
25.0000	10.2274
25.4000	10.3398
25.8000	10.3398
26.2000	10.4521
26.5000	10.4521
26.9000	10.5644
27.2000	10.6768
27.6000	10.6768
28.0000	10.7891
28.5000	10.7891
29.0000	10.9014
29.5000	10.9014
30.0000	10.9014
30.4000	11.0137
30.7000	11.0137
31.1000	11.0137
31.5000	11.0137
32.0000	11.1261
32.5000	11.1261
33.0000	11.1261
33.5000	11.1261
34.0000	11.2384
34.5000	11.2384
35.0000	11.2384
35.5000	11.2384
36.0000	11.2384
36.5000	11.2384
37.0000	11.2384
37.5000	11.2384
38.2000	11.2384
38.7000	11.2384
39.5000	11.2384
40.0000	11.2384
40.6000	11.2384
41.2000	11.1822
41.8000	11.1261
42.5000	11.1261
43.1000	11.1261
43.7000	11.0137
44.4000	11.0137
45.0000	11.0137
45.5000	11.0137
46.2000	10.9576
46.8000	10.9014
47.5000	10.9014
48.2000	10.9014
48.7000	10.8452
49.4000	10.7891
50.0000	10.7891
50.8000	10.6768
51.5000	10.6768
52.2000	10.5644
53.0000	10.5644
53.8000	10.5083
54.5000	10.4521
55.2000	10.4521
56.0000	10.4521
57.0000	10.3398
58.0000	10.3398
59.0000	10.2274
60.0000	10.1151
60.8000	10.059
61.5000	10.0028
62.2000	10.0028
63.0000	10.0028
64.0000	9.8905
65.0000	9.7781
66.0000	9.7781
67.0000	9.7781
68.0000	9.6658
69.0000	9.6096
70.0000	9.5535
71.0000	9.4973
72.0000	9.4411
73.0000	9.4411
74.0000	9.3288
75.0000	9.3288
76.2000	9.2165
77.5000	9.2165
78.8000	9.1042
80.0000	9.048
81.2000	8.9918
82.5000	8.8795
83.8000	8.8795
85.0000	8.7672
86.2000	8.6548
87.5000	8.5425
88.5000	8.5425
90.0000	8.4864
91.2000	8.4302
92.5000	8.4302
93.8000	8.4302
95.0000	8.3179
96.2000	8.2055
97.5000	8.2055
98.8000	8.2055
100.0000	8.2617
101.5000	8.3179
103.0000	8.3179
104.4000	8.3179
106.0000	8.3179
107.5000	8.3179
109.0000	8.3179
110.6000	8.2055
112.0000	8.2055
113.8000	8.2055
115.0000	8.0932
117.2000	8.0932
118.0000	7.9809
120.6000	7.8685
122.0000	7.8685
124.1000	7.7562
125.0000	7.6439
126.5000	7.5877
128.0000	7.4192
131.5000	7.1946
132.0000	7.0823
134.0000	6.9699
136.0000	6.8014
138.0000	6.5206
140.0000	6.3521
143.0000	6.0151
145.0000	5.8466
147.5000	5.7343
150.0000	5.622
152.5000	5.7343
155.0000	5.8466
157.5000	6.0151
160.0000	6.1836
162.5000	6.4083
165.0000	6.5768
167.5000	6.7453
170.0000	6.9699
172.5000	7.1384
175.0000	7.3069
177.5000	7.5316
180.0000	7.6439
182.5000	7.7562
185.0000	7.9247
187.5000	7.9809
190.0000	8.0932
192.5000	8.0932
195.0000	8.2055
197.5000	8.2055
200.0000	8.3179
203.0000	8.5425
206.0000	8.6548
209.0000	8.8795
212.0000	9.048
214.0000	9.2165
218.0000	9.4411
220.0000	9.4411
224.0000	9.6658
227.0000	9.6658
230.0000	9.6658
233.0000	9.6658
236.0000	9.6658
240.0000	9.5535
243.0000	9.5535
247.0000	9.4411
250.0000	9.385
254.0000	9.1603
258.0000	8.9357
262.0000	8.4302
265.0000	8.2055
269.0000	7.3069
272.0000	6.6891
276.0000	6.0713
280.0000	5.8466
285.0000	6.4083
290.0000	7.5316
295.0000	8.2617
300.0000	9.1603
304.0000	9.6096
307.0000	9.7781
311.0000	10.1151
315.0000	10.2274
320.0000	10.4521
325.0000	10.5644
330.0000	10.6768
335.0000	10.6768
340.0000	10.5644
345.0000	10.5644
350.0000	10.3959
355.0000	10.2274
360.0000	10.059
365.0000	9.6658
370.0000	9.385
375.0000	9.2165
382.0000	9.1042
387.0000	9.2165
395.0000	9.3288
400.0000	9.3288
406.0000	9.3288
412.0000	9.2165
418.0000	9.1042
425.0000	9.1042
431.0000	8.9918
437.0000	8.9918
444.0000	8.8795
450.0000	8.8233
455.0000	8.6548
462.0000	8.2617
468.0000	8.0932
475.0000	8.0932
482.0000	7.9247
487.0000	7.7001
494.0000	7.5316
500.0000	7.3631
508.0000	7.1946
515.0000	6.9699
522.0000	6.7453
530.0000	6.6329
538.0000	6.4644
545.0000	6.2398
552.0000	6.0713
560.0000	5.959
570.0000	5.6781
580.0000	5.5097
590.0000	5.5097
600.0000	5.5658
608.0000	5.5097
615.0000	5.5097
622.0000	5.5097
630.0000	5.3973
640.0000	5.3973
650.0000	5.285
660.0000	5.1727
670.0000	5.1165
680.0000	5.0603
690.0000	4.8357
700.0000	4.6672
710.0000	4.4987
720.0000	4.3302
730.0000	4.1617
740.0000	3.8247
750.0000	3.6562
762.0000	3.4316
775.0000	3.0946
788.0000	2.8699
800.0000	2.4768
812.0000	2.196
825.0000	1.9152
838.0000	1.8028
850.0000	1.6905
862.0000	1.6343
875.0000	1.6905
885.0000	1.6905
900.0000	1.6905
912.0000	1.7467
925.0000	1.859
938.0000	1.9152
950.0000	1.9152
962.0000	1.9152
975.0000	1.9152
988.0000	1.9152
1000.0000	1.8028
1015.0000	1.7467
1030.0000	1.6905
1044.0000	1.6905
1060.0000	1.6905
1075.0000	1.6905
1090.0000	1.6905
1106.0000	1.6343
1120.0000	1.5782
1138.0000	1.5782
1150.0000	1.5782
1172.0000	1.5782
1180.0000	1.6905
1206.0000	1.6905
1220.0000	1.8028
1241.0000	1.8028
1250.0000	1.9152
1265.0000	1.9152
1280.0000	1.9152
1315.0000	2.0275
1320.0000	2.0275
1340.0000	2.0275
1360.0000	2.0275
1380.0000	2.0275
1400.0000	2.0275
1430.0000	2.0275
1450.0000	2.1398
1475.0000	2.1398
1500.0000	2.2521
1525.0000	2.2521
1550.0000	2.2521
1575.0000	2.2521
1600.0000	2.1398
1625.0000	2.1398
1650.0000	2.0275
1675.0000	1.9152
1700.0000	1.9152
1725.0000	1.9152
1750.0000	1.9152
1775.0000	1.9152
1800.0000	1.9152
1825.0000	1.9152
1850.0000	1.9152
1875.0000	1.8028
1900.0000	1.9152
1925.0000	1.9152
1950.0000	2.0275
1975.0000	2.0275
2000.0000	2.1398
2030.0000	2.1398
2060.0000	2.1398
2090.0000	2.1398
2120.0000	2.1398
2140.0000	2.1398
2180.0000	2.1398
2200.0000	2.2521
2240.0000	1.8028
2270.0000	2.2521
2300.0000	2.0275
2330.0000	2.1398
2360.0000	2.3645
2400.0000	2.3645
2430.0000	2.4206
2470.0000	2.4768
2500.0000	2.3645
2540.0000	2.2521
2580.0000	2.4206
2620.0000	2.3645
2650.0000	1.522
2690.0000	1.2973
2720.0000	1.1289
2760.0000	0.9042
2800.0000	0.6234
2850.0000	0.2864
2900.0000	-0.1629
2950.0000	-0.4437
3000.0000	-0.5561
3040.0000	-0.5561
3070.0000	-0.5561
3110.0000	-0.5561
3150.0000	-0.4437
3200.0000	-0.3314
3250.0000	-0.2191
3300.0000	-0.2191
3350.0000	-0.2191
3400.0000	-0.2191
3450.0000	-0.2191
3500.0000	-0.2191
3550.0000	-0.2191
3600.0000	-0.2191
3650.0000	-0.3314
3700.0000	-0.4437
3750.0000	-0.7246
3820.0000	-0.7807
3870.0000	-1.23
3950.0000	-1.567
4000.0000	-1.8478
4060.0000	-2.6341
4120.0000	-3.0273
4180.0000	-3.4766
4250.0000	-3.2519
4310.0000	-3.7013
4370.0000	-3.7013
4440.0000	-3.4766
4500.0000	-3.1396
4550.0000	-2.8026
4620.0000	-1.8478
4680.0000	-1.7355
4750.0000	-1.0054
4820.0000	-0.1629
4870.0000	0.1179
4940.0000	0.848
5000.0000	1.0727
5080.0000	1.522
5150.0000	1.9152
5220.0000	1.6905
5300.0000	2.0275
5380.0000	1.8028
5450.0000	2.0275
5520.0000	2.4206
5600.0000	2.7015
5700.0000	2.9261
5800.0000	2.7015
5900.0000	2.7015
6000.0000	3.0384
6080.0000	3.2069
6150.0000	3.4316
6220.0000	3.7124
6300.0000	4.1617
6400.0000	4.7234
6500.0000	5.5658
6600.0000	6.0713
6700.0000	6.5206
6800.0000	7.1946
6900.0000	7.7001
7000.0000	8.2055
7100.0000	8.5425
7200.0000	8.5987
7300.0000	8.2055
7400.0000	7.5877
7500.0000	6.6891
7620.0000	5.2288
7750.0000	4.2179
7880.0000	2.7576
8000.0000	2.0275
8120.0000	1.0727
8250.0000	0.6234
8380.0000	0.2864
8500.0000	0.0056
8620.0000	0.0056
8750.0000	0.0056
8850.0000	0.0617
9000.0000	0.5672
9120.0000	0.5672
9250.0000	0.7919
9380.0000	0.9042
9500.0000	0.9042
9620.0000	0.9042
9750.0000	0.7919
9880.0000	0.7357
10000.0000	0.3987
10150.0000	0.0056
10300.0000	-0.8369
10440.0000	-1.9602
10600.0000	-3.2519
10750.0000	-5.1615
10900.0000	-5.9478
11060.0000	-6.2286
11200.0000	-5.7793
11380.0000	-5.0492
11500.0000	-3.8698
11720.0000	-1.7917
11800.0000	-1.1177
12060.0000	0.7357
12200.0000	1.0165
12410.0000	0.1179
12500.0000	-0.3314
12650.0000	-1.7355
12800.0000	-3.2519
13150.0000	-6.4533
13200.0000	-7.0711
13400.0000	-7.7451
13600.0000	-8.6437
13800.0000	-10.5533
14000.0000	-12.2382
14300.0000	-14.1478
14500.0000	-14.8218
14750.0000	-14.7656
15000.0000	-13.867
15250.0000	-13.3615
15500.0000	-13.3615
15750.0000	-13.7546
16000.0000	-14.8218
16250.0000	-15.1587
16500.0000	-15.6081
16750.0000	-14.8779
17000.0000	-13.4738
17250.0000	-11.1149
17500.0000	-9.7108
17750.0000	-8.9245
18000.0000	-8.6999
18250.0000	-9.767
18500.0000	-10.8903
18750.0000	-11.9012
19000.0000	-13.193
19250.0000	-14.5971
19500.0000	-16.5628
19750.0000	-18.5286
